Frequency (Hz)	Level (dB)
21.533203	-70.011810
43.066406	-64.667084
64.599609	-61.011127
86.132812	-58.742123
107.666016	-57.009819
129.199219	-56.100769
150.732422	-54.617081
172.265625	-49.921017
193.798828	-43.648968
215.332031	-42.071461
236.865234	-46.100353
258.398438	-51.020084
279.931641	-53.376072
301.464844	-54.334904
322.998047	-54.089474
344.531250	-53.077396
366.064453	-51.298565
387.597656	-48.307564
409.130859	-44.315517
430.664062	-42.396137
452.197266	-44.527851
473.730469	-48.424679
495.263672	-50.557014
516.796875	-51.361237
538.330078	-51.370426
559.863281	-50.468643
581.396484	-48.093960
602.929688	-44.182869
624.462891	-41.364334
645.996094	-42.133595
667.529297	-44.082047
689.062500	-45.969463
710.595703	-47.752296
732.128906	-48.880596
753.662109	-49.002644
775.195312	-47.927662
796.728516	-46.469162
818.261719	-45.154224
839.794922	-44.332493
861.328125	-44.272541
882.861328	-44.964870
904.394531	-45.538918
925.927734	-45.957157
947.460938	-46.845425
968.994141	-47.037594
990.527344	-46.636307
1012.060547	-45.743927
1033.593750	-44.771782
1055.126953	-42.635914
1076.660156	-38.212734
1098.193359	-33.854439
1119.726562	-33.793842
1141.259766	-37.439583
1162.792969	-40.518032
1184.326172	-41.702148
1205.859375	-41.995274
1227.392578	-41.233330
1248.925781	-39.290386
1270.458984	-35.203842
1291.992188	-31.122087
1313.525391	-30.407240
1335.058594	-33.486744
1356.591797	-37.103741
1378.125000	-38.932785
1399.658203	-39.578922
1421.191406	-39.154198
1442.724609	-38.062603
1464.257812	-35.882702
1485.791016	-33.030651
1507.324219	-30.992144
1528.857422	-31.507925
1550.390625	-34.193092
1571.923828	-36.434372
1593.457031	-37.622845
1614.990234	-38.043457
1636.523438	-37.787758
1658.056641	-37.181602
1679.589844	-35.777729
1701.123047	-34.724209
1722.656250	-34.138840
1744.189453	-34.142330
1765.722656	-34.372768
1787.255859	-34.935745
1808.789062	-35.812538
1830.322266	-36.494240
1851.855469	-36.825378
1873.388672	-36.852665
1894.921875	-36.358833
1916.455078	-35.643703
1937.988281	-34.834309
1959.521484	-33.993118
1981.054688	-33.497429
2002.587891	-33.523361
2024.121094	-33.793186
2045.654297	-34.744335
2067.187500	-35.654396
2088.720703	-36.292316
2110.253906	-36.701492
2131.787109	-36.071152
2153.320312	-34.705654
2174.853516	-33.273636
2196.386719	-31.580711
2217.919922	-30.599058
2239.453125	-31.473680
2260.986328	-33.300907
2282.519531	-35.166718
2304.052734	-36.323929
2325.585938	-36.631355
2347.119141	-36.157013
2368.652344	-34.685314
2390.185547	-32.079330
2411.718750	-29.335960
2433.251953	-28.665674
2454.785156	-30.245623
2476.318359	-33.217010
2497.851562	-35.501625
2519.384766	-36.269947
2540.917969	-36.618767
2562.451172	-35.948677
2583.984375	-34.263882
2605.517578	-31.419264
2627.050781	-28.112713
2648.583984	-27.045193
2670.117188	-29.565462
2691.650391	-33.097313
2713.183594	-35.269749
2734.716797	-36.180588
2756.250000	-36.617931
2777.783203	-35.906090
2799.316406	-33.793552
2820.849609	-30.633228
2842.382812	-27.336006
2863.916016	-26.518440
2885.449219	-29.243637
2906.982422	-32.767086
2928.515625	-34.968227
2950.048828	-35.777027
2971.582031	-35.748486
2993.115234	-35.083546
3014.648438	-33.092739
3036.181641	-29.980270
3057.714844	-26.497849
3079.248047	-25.654507
3100.781250	-28.416969
3122.314453	-31.788284
3143.847656	-33.741089
3165.380859	-34.726444
3186.914062	-34.856903
3208.447266	-34.174179
3229.980469	-32.489948
3251.513672	-29.317150
3273.046875	-25.762470
3294.580078	-24.755087
3316.113281	-27.074663
3337.646484	-30.259502
3359.179688	-32.339809
3380.712891	-33.048267
3402.246094	-33.214138
3423.779297	-32.747471
3445.312500	-30.882801
3466.845703	-28.101015
3488.378906	-25.122156
3509.912109	-24.088089
3531.445312	-25.932814
3552.978516	-29.063730
3574.511719	-31.496319
3596.044922	-32.203232
3617.578125	-32.430527
3639.111328	-32.174599
3660.644531	-30.583471
3682.177734	-28.266451
3703.710938	-25.483448
3725.244141	-24.150183
3746.777344	-25.431225
3768.310547	-28.769285
3789.843750	-31.367756
3811.376953	-32.978378
3832.910156	-33.608757
3854.443359	-33.568314
3875.976562	-32.629532
3897.509766	-30.812134
3919.042969	-27.837502
3940.576172	-26.311007
3962.109375	-27.149141
3983.642578	-30.220003
4005.175781	-33.509190
4026.708984	-35.496552
4048.242188	-36.133156
4069.775391	-36.218742
4091.308594	-35.433434
4112.841797	-33.508011
4134.375000	-30.725153
4155.908203	-28.939007
4177.441406	-29.996414
4198.974609	-32.881943
4220.507812	-35.770355
4242.041016	-37.997833
4263.574219	-39.075752
4285.107422	-39.240257
4306.640625	-38.313362
4328.173828	-36.511070
4349.707031	-33.671959
4371.240234	-32.011524
4392.773438	-33.171295
4414.306641	-36.475601
4435.839844	-38.879944
4457.373047	-40.582104
4478.906250	-41.672359
4500.439453	-41.626865
4521.972656	-40.917744
4543.505859	-39.269100
4565.039062	-36.796673
4586.572266	-35.045208
4608.105469	-35.726017
4629.638672	-38.577427
4651.171875	-41.353893
4672.705078	-42.814121
4694.238281	-43.665245
4715.771484	-43.823196
4737.304688	-43.201351
4758.837891	-41.898643
4780.371094	-39.936779
4801.904297	-38.713642
4823.437500	-39.311977
4844.970703	-41.420673
4866.503906	-43.491379
4888.037109	-45.131001
4909.570312	-45.922863
4931.103516	-45.878593
4952.636719	-45.437557
4974.169922	-44.532814
4995.703125	-43.032204
5017.236328	-41.514523
5038.769531	-40.960533
5060.302734	-42.177399
5081.835938	-44.142437
5103.369141	-45.529568
5124.902344	-46.558098
5146.435547	-46.896252
5167.968750	-46.704464
5189.501953	-46.018169
5211.035156	-44.693836
5232.568359	-43.249367
5254.101562	-42.416237
5275.634766	-42.414913
5297.167969	-43.760094
5318.701172	-45.599594
5340.234375	-46.672554
5361.767578	-47.386456
5383.300781	-47.624809
5404.833984	-47.073883
5426.367188	-45.819141
5447.900391	-44.037796
5469.433594	-42.429646
5490.966797	-42.101257
5512.500000	-43.587723
5534.033203	-45.401024
5555.566406	-47.035786
5577.099609	-47.993507
5598.632812	-48.358139
5620.166016	-48.092686
5641.699219	-46.436543
5663.232422	-44.346962
5684.765625	-42.636539
5706.298828	-42.601040
5727.832031	-43.932705
5749.365234	-45.824448
5770.898438	-47.580696
5792.431641	-48.715034
5813.964844	-48.976597
5835.498047	-48.339935
5857.031250	-46.994568
5878.564453	-45.561172
5900.097656	-43.691601
5921.630859	-43.016376
5943.164062	-44.035423
5964.697266	-46.187408
5986.230469	-47.815742
6007.763672	-48.704941
6029.296875	-49.053860
6050.830078	-48.815022
6072.363281	-47.771019
6093.896484	-45.975773
6115.429688	-44.445896
6136.962891	-43.508385
6158.496094	-43.882656
6180.029297	-45.964912
6201.562500	-48.046219
6223.095703	-49.022793
6244.628906	-49.434277
6266.162109	-49.097584
6287.695312	-48.141476
6309.228516	-46.599014
6330.761719	-44.705078
6352.294922	-43.288082
6373.828125	-43.924858
6395.361328	-45.756790
6416.894531	-47.833733
6438.427734	-48.867573
6459.960938	-49.165638
6481.494141	-48.921886
6503.027344	-48.285351
6524.560547	-46.570877
6546.093750	-44.459259
6567.626953	-43.309517
6589.160156	-43.716953
6610.693359	-45.465485
6632.226562	-47.479027
6653.759766	-48.954025
6675.292969	-49.386501
6696.826172	-49.086964
6718.359375	-48.261013
6739.892578	-46.737461
6761.425781	-44.645588
6782.958984	-43.500938
6804.492188	-44.009995
6826.025391	-45.552105
6847.558594	-47.235378
6869.091797	-48.559284
6890.625000	-49.081345
6912.158203	-49.136906
6933.691406	-48.397919
6955.224609	-46.823204
6976.757812	-45.155579
6998.291016	-43.685028
7019.824219	-43.496658
7041.357422	-45.004883
7062.890625	-46.456791
7084.423828	-47.902718
7105.957031	-48.550354
7127.490234	-48.584496
7149.023438	-47.982342
7170.556641	-46.602428
7192.089844	-44.807961
7213.623047	-43.198284
7235.156250	-43.026531
7256.689453	-44.484051
7278.222656	-46.110199
7299.755859	-47.132915
7321.289062	-47.797287
7342.822266	-47.740395
7364.355469	-47.119305
7385.888672	-45.966415
7407.421875	-44.419285
7428.955078	-42.925491
7450.488281	-42.470207
7472.021484	-43.259495
7493.554688	-44.874126
7515.087891	-46.236450
7536.621094	-46.740925
7558.154297	-46.716625
7579.687500	-46.006203
7601.220703	-44.787090
7622.753906	-42.951248
7644.287109	-41.595688
7665.820312	-41.121861
7687.353516	-41.716835
7708.886719	-43.018723
7730.419922	-44.345440
7751.953125	-45.578079
7773.486328	-45.725662
7795.019531	-45.264381
7816.552734	-44.459854
7838.085938	-43.177917
7859.619141	-41.538609
7881.152344	-40.682823
7902.685547	-41.056068
7924.218750	-42.547501
7945.751953	-43.704403
7967.285156	-44.484161
7988.818359	-44.657803
8010.351562	-44.259201
8031.884766	-43.315544
8053.417969	-41.704800
8074.951172	-40.000511
8096.484375	-39.151215
8118.017578	-39.679024
8139.550781	-40.888805
8161.083984	-42.180885
8182.617188	-42.854347
8204.150391	-42.805634
8225.683594	-42.359566
8247.216797	-41.790119
8268.750000	-40.194347
8290.283203	-38.624493
8311.816406	-37.648945
8333.349609	-37.976219
8354.882812	-38.770237
8376.416016	-39.886036
8397.949219	-40.629543
8419.482422	-40.907833
8441.015625	-40.514599
8462.548828	-39.750408
8484.082031	-38.560146
8505.615234	-37.391891
8527.148438	-36.367126
8548.681641	-36.524807
8570.214844	-37.467987
8591.748047	-38.295624
8613.281250	-38.935860
8634.814453	-39.277538
8656.347656	-38.862122
8677.880859	-38.320236
8699.414062	-37.402309
8720.947266	-36.534847
8742.480469	-35.675858
8764.013672	-35.672543
8785.546875	-36.648186
8807.080078	-37.617470
8828.613281	-38.260910
8850.146484	-38.541168
8871.679688	-38.272423
8893.212891	-37.547466
8914.746094	-36.710442
8936.279297	-36.017094
8957.812500	-35.590244
8979.345703	-35.483051
9000.878906	-36.041920
9022.412109	-36.714474
9043.945312	-37.292076
9065.478516	-37.488552
9087.011719	-37.427162
9108.544922	-37.260262
9130.078125	-36.935570
9151.611328	-36.775093
9173.144531	-36.652443
9194.677734	-36.722641
9216.210938	-37.097294
9237.744141	-37.635223
9259.277344	-38.579823
9280.810547	-39.296135
9302.343750	-40.066845
9323.876953	-41.027390
9345.410156	-41.583118
9366.943359	-41.637115
9388.476562	-41.571484
9410.009766	-41.907490
9431.542969	-42.235561
9453.076172	-42.949326
9474.609375	-44.138245
9496.142578	-45.595463
9517.675781	-46.757591
9539.208984	-47.804176
9560.742188	-48.679726
9582.275391	-48.666592
9603.808594	-48.614780
9625.341797	-48.571510
9646.875000	-48.870163
9668.408203	-49.993732
9689.941406	-51.370132
9711.474609	-52.805439
9733.007812	-54.295258
9754.541016	-55.273281
9776.074219	-55.956715
9797.607422	-56.494625
9819.140625	-56.368725
9840.673828	-56.348625
9862.207031	-56.986137
9883.740234	-58.037006
9905.273438	-59.580624
9926.806641	-61.443001
9948.339844	-63.060341
9969.873047	-64.453682
9991.406250	-65.228683
10012.939453	-65.681259
10034.472656	-66.034775
10056.005859	-66.241257
10077.539062	-66.759995
10099.072266	-67.885078
10120.605469	-69.832726
10142.138672	-72.064537
10163.671875	-73.701424
10185.205078	-75.065056
10206.738281	-76.125000
10228.271484	-76.964821
10249.804688	-77.557434
10271.337891	-77.980476
10292.871094	-78.658852
10314.404297	-79.913155
10335.937500	-81.938408
10357.470703	-83.757248
10379.003906	-85.263145
10400.537109	-87.043747
10422.070312	-88.506294
10443.603516	-89.786331
10465.136719	-90.742821
10486.669922	-91.442566
10508.203125	-92.473564
10529.736328	-93.828835
10551.269531	-95.970261
10572.802734	-98.562149
10594.335938	-101.090569
10615.869141	-103.538460
10637.402344	-106.239250
10658.935547	-108.474876
10680.468750	-111.163361
10702.001953	-114.346191
10723.535156	-117.549316
10745.068359	-121.322784
10766.601562	-125.783325
10788.134766	-130.694321
10809.667969	-136.108032
10831.201172	-141.494766
10852.734375	-145.805649
10874.267578	-148.042099
10895.800781	-148.947144
10917.333984	-149.200104
10938.867188	-149.383072
10960.400391	-149.467346
10981.933594	-149.576035
11003.466797	-149.591171
